Units are: observed wavelength (Ang), observed flux (10^-15 erg/s/cm^2/Ang)
       3343.2116       7.3982930
       3345.1586       7.3336320
       3347.1056       7.2786820
       3349.0526       7.4256140
       3350.9996       7.4058380
       3352.9466       7.4492780
       3354.8937       7.3397750
       3356.8407       7.2465710
       3358.7877       7.3974420
       3360.7347       7.4343870
       3362.6817       7.2551740
       3364.6287       6.9889490
       3366.5757       6.7794070
       3368.5227       6.8032490
       3370.4697       6.6885110
       3372.4167       6.7480870
       3374.3637       6.6725750
       3376.3108       6.8846740
       3378.2578       6.9385900
       3380.2048       7.0141170
       3382.1518       6.8050710
       3384.0988       6.7845390
       3386.0458       6.8143990
       3387.9928       6.7709320
       3389.9398       6.8650720
       3391.8868       6.8382200
       3393.8338       7.0292260
       3395.7808       7.0377790
       3397.7279       6.8324490
       3399.6749       6.8183980
       3401.6219       7.0114550
       3403.5689       6.9717880
       3405.5159       7.1049530
       3407.4629       7.1102000
       3409.4099       7.1523000
       3411.3569       7.0843530
       3413.3039       7.0939740
       3415.2509       7.1362920
       3417.1979       7.1460870
       3419.1450       7.1280090
       3421.0920       7.1677910
       3423.0390       7.0547340
       3424.9860       6.9239250
       3426.9330       6.9823920
       3428.8800       6.9448900
       3430.8270       6.9553280
       3432.7740       6.7674750
       3434.7210       6.6561790
       3436.6680       6.7588820
       3438.6150       6.7406870
       3440.5621       6.5812590
       3442.5091       6.5630680
       3444.4561       6.5727040
       3446.4031       6.5515520
       3448.3501       6.5757980
       3450.2971       6.5511510
       3452.2441       6.6815470
       3454.1911       6.5212260
       3456.1381       6.4913220
       3458.0851       6.5421640
       3460.0321       6.6521660
       3461.9792       6.4783830
       3463.9262       6.3368330
       3465.8732       6.3118540
       3467.8202       6.2511750
       3469.7672       6.2761860
       3471.7142       6.1306220
       3473.6612       6.0756500
       3475.6082       5.9995390
       3477.5552       6.0034600
       3479.5022       5.9272010
       3481.4492       6.0436370
       3483.3963       6.1399080
       3485.3433       6.0186430
       3487.2903       5.9687580
       3489.2373       5.9076400
       3491.1843       6.0607110
       3493.1313       6.1710960
       3495.0783       6.2225110
       3497.0253       6.1814450
       3498.9723       6.2861120
       3500.9193       6.2851250
       3502.8663       6.2180330
       3504.8134       6.2612640
       3506.7604       6.3794130
       3508.7074       6.3399540
       3510.6544       6.2854620
       3512.6014       6.2752240
       3514.5484       6.4077090
       3516.4954       6.4026410
       3518.4424       6.4272770
       3520.3894       6.2845720
       3522.3364       6.1878630
       3524.2835       6.2799300
       3526.2305       6.2452390
       3528.1775       6.3902250
       3530.1245       6.3459100
       3532.0715       6.2402080
       3534.0185       6.2562750
       3535.9655       6.2439660
       3537.9125       6.1962430
       3539.8595       6.2193430
       3541.8065       6.2051720
       3543.7535       6.1949280
       3545.7006       6.1998260
       3547.6476       6.0839560
       3549.5946       6.0594920
       3551.5416       6.0732680
       3553.4886       6.0691230
       3555.4356       6.1140620
       3557.3826       6.1280850
       3559.3296       6.0458980
       3561.2766       5.9841400
       3563.2236       5.9337100
       3565.1706       6.0697870
       3567.1177       6.0660270
       3569.0647       6.0115080
       3571.0117       5.9537630
       3572.9587       5.9501220
       3574.9057       5.7695140
       3576.8527       5.7590820
       3578.7997       5.7064960
       3580.7467       5.7039450
       3582.6937       5.6888240
       3584.6407       5.6545630
       3586.5877       5.6821210
       3588.5348       5.5917740
       3590.4818       5.5262110
       3592.4288       5.4893200
       3594.3758       5.5452000
       3596.3228       5.4948950
       3598.2698       5.2769650
       3600.2168       5.2495680
       3602.1638       5.2306670
       3604.1108       5.2791080
       3606.0578       5.2408610
       3608.0048       5.0422850
       3609.9519       5.0812400
       3611.8989       5.1332810
       3613.8459       5.0451770
       3615.7929       5.0510110
       3617.7399       5.0744480
       3619.6869       5.0425610
       3621.6339       5.0046370
       3623.5809       4.9847120
       3625.5279       4.9937190
       3627.4749       4.9953650
       3629.4219       5.1208850
       3631.3690       5.1681640
       3633.3160       5.1824960
       3635.2630       5.2209590
       3637.2100       5.3055040
       3639.1570       5.3401700
       3641.1040       5.3617250
       3643.0510       5.4354400
       3644.9980       5.5301280
       3646.9450       5.4427150
       3648.8920       5.5101350
       3650.8390       5.5728690
       3652.7861       5.5669580
       3654.7331       5.5785840
       3656.6801       5.5199570
       3658.6271       5.5768870
       3660.5741       5.4810880
       3662.5211       5.5425220
       3664.4681       5.5443010
       3666.4151       5.5718190
       3668.3621       5.5716810
       3670.3091       5.5785160
       3672.2561       5.6265490
       3674.2032       5.5420810
       3676.1502       5.5025490
       3678.0972       5.4043550
       3680.0442       5.4604610
       3681.9912       5.4205620
       3683.9382       5.3226810
       3685.8852       5.2891370
       3687.8322       5.2059860
       3689.7792       5.1633820
       3691.7262       5.0735740
       3693.6732       4.9948910
       3695.6203       4.8179810
       3697.5673       4.7366730
       3699.5143       4.7004720
       3701.4613       4.7134300
       3703.4083       4.5386080
       3705.3553       4.4445170
       3707.3023       4.3940530
       3709.2493       4.2885420
       3711.1963       4.2505880
       3713.1433       4.2763160
       3715.0903       4.2643160
       3717.0374       4.2207320
       3718.9844       4.2348830
       3720.9314       4.2079180
       3722.8784       4.1515680
       3724.8254       4.1599550
       3726.7724       4.2253440
       3728.7194       4.2771630
       3730.6664       4.4342470
       3732.6134       4.3926540
       3734.5604       4.3574730
       3736.5074       4.3441650
       3738.4545       4.3903740
       3740.4015       4.2777570
       3742.3485       4.3504540
       3744.2955       4.2459420
       3746.2425       4.1978120
       3748.1895       4.2106800
       3750.1365       4.1099240
       3752.0835       3.9960850
       3754.0305       3.9451330
       3755.9775       3.8829510
       3757.9245       3.7229190
       3759.8716       3.7104710
       3761.8186       3.6889020
       3763.7656       3.5696030
       3765.7126       3.5155940
       3767.6596       3.4367720
       3769.6066       3.4966100
       3771.5536       3.3993050
       3773.5006       3.3831350
       3775.4476       3.3960160
       3777.3946       3.2934530
       3779.3417       3.3265770
       3781.2887       3.2409210
       3783.2357       3.1954080
       3785.1827       3.2352600
       3787.1297       3.3080570
       3789.0767       3.3719900
       3791.0237       3.3187050
       3792.9707       3.3974540
       3794.9177       3.4182190
       3796.8647       3.4875040
       3798.8117       3.4869270
       3800.7588       3.6007760
       3802.7058       3.6367290
       3804.6528       3.6741470
       3806.5998       3.7110870
       3808.5468       3.6660290
       3810.4938       3.7359050
       3812.4408       3.7873530
       3814.3878       3.7620150
       3816.3348       3.7769200
       3818.2818       3.7323580
       3820.2288       3.8231460
       3822.1759       3.9316850
       3824.1229       4.0879420
       3826.0699       4.1536720
       3828.0169       4.1109390
       3829.9639       4.2039910
       3831.9109       4.3391400
       3833.8579       4.3578630
       3835.8049       4.3523230
       3837.7519       4.4678290
       3839.6989       4.5297150
       3841.6459       4.5331480
       3843.5930       4.5783990
       3845.5400       4.4882230
       3847.4870       4.5445680
       3849.4340       4.6659720
       3851.3810       4.5863950
       3853.3280       4.5910160
       3855.2750       4.5996740
       3857.2220       4.6235090
       3859.1690       4.6077560
       3861.1160       4.6152750
       3863.0630       4.6391970
       3865.0101       4.6376640
       3866.9571       4.6487080
       3868.9041       4.6272910
       3870.8511       4.6366890
       3872.7981       4.6015370
       3874.7451       4.6759320
       3876.6921       4.7057910
       3878.6391       4.6192100
       3880.5861       4.7240460
       3882.5331       4.7045450
       3884.4801       4.6884370
       3886.4272       4.6619140
       3888.3742       4.6673010
       3890.3212       4.6778480
       3892.2682       4.6810950
       3894.2152       4.7198940
       3896.1622       4.6456060
       3898.1092       4.5805580
       3900.0562       4.5773060
       3902.0032       4.5787900
       3903.9502       4.5715830
       3905.8972       4.5385120
       3907.8443       4.5296270
       3909.7913       4.5649970
       3911.7383       4.5217130
       3913.6853       4.5104850
       3915.6323       4.4969090
       3917.5793       4.5223480
       3919.5263       4.5216860
       3921.4733       4.4637690
       3923.4203       4.5231270
       3925.3673       4.6039710
       3927.3143       4.5354900
       3929.2614       4.4141290
       3931.2084       4.3631740
       3933.1554       4.3643490
       3935.1024       4.4677610
       3937.0494       4.4870200
       3938.9964       4.4950330
       3940.9434       4.5225280
       3942.8904       4.5116620
       3944.8374       4.4923650
       3946.7844       4.4662370
       3948.7314       4.3396260
       3950.6785       4.2703470
       3952.6255       4.3433330
       3954.5725       4.3719300
       3956.5195       4.4008430
       3958.4665       4.4150930
       3960.4135       4.3942940
       3962.3605       4.2983500
       3964.3075       4.1395410
       3966.2545       4.1076150
       3968.2015       4.0497840
       3970.1485       4.0494600
       3972.0956       4.0748460
       3974.0426       4.0827240
       3975.9896       4.0171880
       3977.9366       3.9943850
       3979.8836       3.9234200
       3981.8306       3.8751320
       3983.7776       3.8141360
       3985.7246       3.7568590
       3987.6716       3.7702600
       3989.6186       3.7940460
       3991.5656       3.9008950
       3993.5127       3.8556310
       3995.4597       3.8260130
       3997.4067       3.9125070
       3999.3537       3.9174320
       4001.3007       3.9290950
       4003.2477       3.9356760
       4005.1947       3.8274560
       4007.1417       3.8344330
       4009.0887       3.8633700
       4011.0357       3.9134970
       4012.9828       3.9144010
       4014.9298       3.8417370
       4016.8768       3.8811960
       4018.8238       3.8652600
       4020.7708       3.8832280
       4022.7178       3.9012030
       4024.6648       3.9015550
       4026.6118       3.9267410
       4028.5588       3.8643770
       4030.5058       3.9319760
       4032.4528       3.9333880
       4034.3999       3.9137810
       4036.3469       3.9528000
       4038.2939       4.0186740
       4040.2409       3.9719830
       4042.1879       3.9320150
       4044.1349       4.0030940
       4046.0819       4.0961340
       4048.0289       4.0369590
       4049.9759       4.0122660
       4051.9229       4.0618870
       4053.8699       4.0186020
       4055.8170       4.0174790
       4057.7640       3.9900580
       4059.7110       4.0201950
       4061.6580       3.9400540
       4063.6050       3.9156820
       4065.5520       3.9074280
       4067.4990       3.9420320
       4069.4460       3.9259300
       4071.3930       3.8866420
       4073.3400       3.8984720
       4075.2870       3.9149630
       4077.2341       3.8575590
       4079.1811       3.9166340
       4081.1281       3.8717850
       4083.0751       3.9131480
       4085.0221       3.8099020
       4086.9691       3.7940100
       4088.9161       3.8347360
       4090.8631       3.8422960
       4092.8101       3.7806170
       4094.7571       3.7526080
       4096.7041       3.7529650
       4098.6512       3.7014120
       4100.5982       3.6316490
       4102.5452       3.6176030
       4104.4922       3.6206870
       4106.4392       3.5136890
       4108.3862       3.5325930
       4110.3332       3.5351490
       4112.2802       3.5501080
       4114.2272       3.5553300
       4116.1742       3.5019560
       4118.1212       3.5282000
       4120.0683       3.6033770
       4122.0153       3.5975340
       4123.9623       3.5696410
       4125.9093       3.5826760
       4127.8563       3.6202090
       4129.8033       3.6630570
       4131.7503       3.6833820
       4133.6973       3.6846650
       4135.6443       3.7266000
       4137.5913       3.7904300
       4139.5383       3.7789450
       4141.4854       3.7895260
       4143.4324       3.7831960
       4145.3794       3.7614810
       4147.3264       3.8048870
       4149.2734       3.7636080
       4151.2204       3.7212030
       4153.1674       3.7210330
       4155.1144       3.7907410
       4157.0614       3.7523890
       4159.0084       3.7016390
       4160.9554       3.7046500
       4162.9025       3.7605910
       4164.8495       3.7541650
       4166.7965       3.7469560
       4168.7435       3.6998870
       4170.6905       3.6835690
       4172.6375       3.6234040
       4174.5845       3.6215990
       4176.5315       3.6430930
       4178.4785       3.5567230
       4180.4255       3.5258180
       4182.3725       3.5446610
       4184.3196       3.5006040
       4186.2666       3.5075330
       4188.2136       3.4911950
       4190.1606       3.4795980
       4192.1076       3.4316740
       4194.0546       3.3881520
       4196.0016       3.3601380
       4197.9486       3.4184920
       4199.8956       3.4218340
       4201.8426       3.3692620
       4203.7896       3.3944650
       4205.7367       3.3520090
       4207.6837       3.3798930
       4209.6307       3.3737390
       4211.5777       3.3760660
       4213.5247       3.3612170
       4215.4717       3.3315830
       4217.4187       3.3596520
       4219.3657       3.3308130
       4221.3127       3.3349450
       4223.2597       3.3420670
       4225.2067       3.3364800
       4227.1538       3.3081530
       4229.1008       3.3037040
       4231.0478       3.3479590
       4232.9948       3.3788360
       4234.9418       3.3721600
       4236.8888       3.3327590
       4238.8358       3.3289140
       4240.7828       3.3445290
       4242.7298       3.3446470
       4244.6768       3.3827030
       4246.6238       3.3651520
       4248.5709       3.4135010
       4250.5179       3.3766240
       4252.4649       3.3238490
       4254.4119       3.3051020
       4256.3589       3.3301810
       4258.3059       3.3647530
       4260.2529       3.3199400
       4262.1999       3.3140120
       4264.1469       3.3665650
       4266.0939       3.3351790
       4268.0410       3.2675910
       4269.9880       3.2729200
       4271.9350       3.2533880
       4273.8820       3.1881680
       4275.8290       3.1807090
       4277.7760       3.1681190
       4279.7230       3.1331980
       4281.6700       3.0785400
       4283.6170       3.1178240
       4285.5640       3.0835290
       4287.5110       3.0568900
       4289.4581       3.0026800
       4291.4051       2.9686330
       4293.3521       3.0010990
       4295.2991       2.9806360
       4297.2461       2.9469860
       4299.1931       2.8869880
       4301.1401       2.8139400
       4303.0871       2.8063610
       4305.0341       2.7493740
       4306.9811       2.6917150
       4308.9281       2.6928430
       4310.8752       2.7268690
       4312.8222       2.6914790
       4314.7692       2.6749940
       4316.7162       2.6906200
       4318.6632       2.7038130
       4320.6102       2.7586410
       4322.5572       2.8245190
       4324.5042       2.7992870
       4326.4512       2.8347950
       4328.3982       2.8853030
       4330.3452       2.8681560
       4332.2923       2.8531670
       4334.2393       2.9074840
       4336.1863       2.9440040
       4338.1333       2.9755170
       4340.0803       3.0040850
       4342.0273       3.0264850
       4343.9743       3.0019660
       4345.9213       2.9707820
       4347.8683       3.0537130
       4349.8153       3.1235540
       4351.7623       3.1419290
       4353.7094       3.1360050
       4355.6564       3.1497820
       4357.6034       3.1552440
       4359.5504       3.1456570
       4361.4974       3.1732700
       4363.4444       3.1433070
       4365.3914       3.1105530
       4367.3384       3.1098350
       4369.2854       3.1059080
       4371.2324       3.1066450
       4373.1794       3.0807220
       4375.1265       3.1195240
       4377.0735       3.1251850
       4379.0205       3.1060350
       4380.9675       3.0748340
       4382.9145       3.0744480
       4384.8615       3.0885510
       4386.8085       3.0680220
       4388.7555       3.0738910
       4390.7025       3.0921780
       4392.6495       3.0841230
       4394.5965       3.0545620
       4396.5436       3.0688940
       4398.4906       3.0766750
       4400.4376       3.0848780
       4402.3846       3.0256710
       4404.3316       3.0004310
       4406.2786       3.0354790
       4408.2256       3.0762570
       4410.1726       3.0507790
       4412.1196       3.0575350
       4414.0666       3.0447520
       4416.0136       2.9936710
       4417.9607       3.0341490
       4419.9077       3.0909620
       4421.8547       3.0523250
       4423.8017       3.0889320
       4425.7487       3.1151840
       4427.6957       3.1166940
       4429.6427       3.0843350
       4431.5897       3.1220120
       4433.5367       3.1338800
       4435.4837       3.1517650
       4437.4307       3.1569290
       4439.3778       3.2074770
       4441.3248       3.1572780
       4443.2718       3.1588320
       4445.2188       3.1682930
       4447.1658       3.1652080
       4449.1128       3.1368180
       4451.0598       3.1418760
       4453.0068       3.1734880
       4454.9538       3.1799650
       4456.9008       3.1422770
       4458.8478       3.1681130
       4460.7949       3.1191390
       4462.7419       3.1447550
       4464.6889       3.2026510
       4466.6359       3.1730110
       4468.5829       3.1547230
       4470.5299       3.1623250
       4472.4769       3.1223960
       4474.4239       3.0983610
       4476.3709       3.1069550
       4478.3179       3.0869510
       4480.2649       3.1017270
       4482.2120       3.0674640
       4484.1590       3.0734270
       4486.1060       3.0254630
       4488.0530       3.0398890
       4490.0000       3.0644540
       4491.9470       3.0659460
       4493.8940       3.0751680
       4495.8410       3.0283450
       4497.7880       3.0082930
       4499.7350       3.0379210
       4501.6820       3.0316910
       4503.6291       3.0240550
       4505.5761       3.0946880
       4507.5231       3.0493550
       4509.4701       3.0014370
       4511.4171       3.0407470
       4513.3641       3.0407260
       4515.3111       3.0383500
